# Wavelength  (nm), QE (%)
279.598808, 3.420732
279.609985, 3.421819
279.643257, 3.425056
279.698232, 3.430407
279.774519, 3.437844
279.871729, 3.447338
279.989469, 3.458867
280.127349, 3.472409
280.284979, 3.487947
280.461968, 3.505467
280.657924, 3.524956
280.872457, 3.546403
281.105176, 3.569803
281.355690, 3.595149
281.623609, 3.622438
281.908541, 3.651668
282.210097, 3.682840
282.527884, 3.715957
282.861513, 3.751020
283.210592, 3.788036
283.574730, 3.827011
283.953538, 3.867951
284.346623, 3.910866
284.753596, 3.955765
285.174064, 4.002658
285.607639, 4.051556
286.053928, 4.102470
286.512541, 4.155413
286.983087, 4.210397
287.465176, 4.267435
287.958415, 4.326539
288.462416, 4.387722
288.976786, 4.450997
289.501136, 4.516376
290.035073, 4.583871
290.578208, 4.653493
291.130150, 4.725252
291.690507, 4.799159
292.258890, 4.875222
292.834906, 4.953449
293.418166, 5.033846
294.008279, 5.116417
294.604853, 5.201166
295.207498, 5.288092
295.815823, 5.377197
296.429437, 5.468475
297.047950, 5.561922
297.670971, 5.657529
298.298108, 5.755285
298.928972, 5.855176
299.563171, 5.957183
300.200314, 6.061287
300.840010, 6.167462
301.481870, 6.275680
302.125501, 6.385908
302.770514, 6.498109
303.416517, 6.612241
304.063119, 6.728258
304.709931, 6.846109
305.356560, 6.965736
306.002616, 7.087079
306.647709, 7.210068
307.291447, 7.334630
307.933439, 7.460687
308.573296, 7.588151
309.210625, 7.716932
309.845037, 7.846929
310.476140, 7.978039
311.103544, 8.110147
311.726858, 8.243136
312.345690, 8.376878
312.959651, 8.511240
313.568349, 8.646081
314.171394, 8.781253
314.768394, 8.916601
315.358959, 9.051962
315.942699, 9.187165
316.519221, 9.322034
317.088137, 9.456383
317.649053, 9.590022
318.201581, 9.722752
318.745329, 9.854367
319.279906, 9.984657
319.804921, 10.113403
320.319984, 10.240382
320.824704, 10.365364
321.318689, 10.488115
321.801550, 10.608395
322.272895, 10.725961
322.732334, 10.840566
323.179476, 10.951957
323.613929, 11.059883
324.035304, 11.164087
324.443208, 11.264313
324.837253, 11.360302
325.217046, 11.451798
325.582197, 11.538543
325.932314, 11.620282
326.267008, 11.696763
326.585888, 11.767736
326.585888, 11.767736
326.899872, 11.836990
327.220029, 11.908507
327.546453, 11.982290
327.879242, 12.058340
328.218491, 12.136663
328.564297, 12.217261
328.916756, 12.300140
329.275964, 12.385303
329.642017, 12.472755
330.015012, 12.562503
330.395045, 12.654550
330.782212, 12.748903
331.176609, 12.845568
331.578333, 12.944549
331.987479, 13.045853
332.404144, 13.149486
332.828424, 13.255454
333.260416, 13.363762
333.700214, 13.474417
334.147917, 13.587424
334.603620, 13.702788
335.067418, 13.820516
335.539409, 13.940612
336.019689, 14.063082
336.508353, 14.187929
337.005499, 14.315158
337.511221, 14.444773
338.025617, 14.576778
338.548783, 14.711175
339.080814, 14.847968
339.621808, 14.987157
340.171860, 15.128745
340.731066, 15.272732
341.299523, 15.419118
341.877327, 15.567902
342.464573, 15.719083
343.061360, 15.872659
343.667781, 16.028626
344.283935, 16.186981
344.909916, 16.347718
345.545822, 16.510830
346.191748, 16.676312
346.847791, 16.844154
347.514046, 17.014346
348.190610, 17.186879
348.877580, 17.361740
349.575051, 17.538916
350.283120, 17.718392
351.001883, 17.900151
351.731435, 18.084175
352.471874, 18.270447
353.223296, 18.458943
353.985796, 18.649643
354.759471, 18.842521
355.544417, 19.037551
356.340731, 19.234705
357.148508, 19.433954
357.967845, 19.635265
358.798838, 19.838605
359.641583, 20.043937
360.496177, 20.251224
361.362715, 20.460425
362.241294, 20.671498
363.132010, 20.884398
364.034960, 21.099078
364.950238, 21.315489
365.877943, 21.533578
366.818169, 21.753291
367.771014, 21.974572
368.736573, 22.197361
369.714942, 22.421595
370.706218, 22.647210
371.710497, 22.874139
372.727876, 23.102311
373.758449, 23.331653
374.802314, 23.562090
375.859568, 23.793542
376.930305, 24.025929
378.014622, 24.259166
379.112616, 24.493165
380.224382, 24.727836
381.350017, 24.963086
382.489618, 25.198819
383.643279, 25.434936
384.811098, 25.671334
385.993171, 25.907907
387.189594, 26.144549
388.400463, 26.381147
389.625874, 26.617587
390.865924, 26.853753
392.120709, 27.089524
393.390325, 27.324777
394.674867, 27.559385
395.974434, 27.793222
397.289120, 28.026153
398.619021, 28.258046
399.964235, 28.488763
401.324857, 28.718164
402.700984, 28.946107
402.700984, 28.946107
404.095375, 29.173364
405.510640, 29.400761
406.946379, 29.628235
408.402193, 29.855720
409.877682, 30.083149
411.372449, 30.310453
412.886093, 30.537564
414.418216, 30.764409
415.968419, 30.990916
417.536303, 31.217011
419.121468, 31.442619
420.723516, 31.667662
422.342047, 31.892064
423.976663, 32.115744
425.626965, 32.338622
427.292553, 32.560616
428.973029, 32.781643
430.667993, 33.001618
432.377047, 33.220455
434.099791, 33.438068
435.835826, 33.654368
437.584754, 33.869267
439.346174, 34.082674
441.119689, 34.294498
442.904900, 34.504647
444.701406, 34.713026
446.508810, 34.919543
448.326712, 35.124101
450.154712, 35.326605
451.992413, 35.526958
453.839415, 35.725063
455.695319, 35.920820
457.559725, 36.114132
459.432236, 36.304898
461.312451, 36.493019
463.199973, 36.678393
465.094401, 36.860921
466.995336, 37.040500
468.902381, 37.217028
470.815135, 37.390405
472.733200, 37.560527
474.656176, 37.727292
476.583665, 37.890599
478.515268, 38.050345
480.450585, 38.206427
482.389217, 38.358745
484.330766, 38.507196
486.274833, 38.651679
488.221017, 38.792094
490.168922, 38.928339
492.118146, 39.060315
494.068292, 39.187923
496.018959, 39.311065
497.969750, 39.429643
499.920266, 39.543561
501.870106, 39.652723
503.818872, 39.757034
505.766166, 39.856402
507.711587, 39.950735
509.654738, 40.039941
511.595218, 40.123933
513.532630, 40.202622
515.466573, 40.275923
517.396649, 40.343751
519.322459, 40.406025
521.243603, 40.462664
523.159684, 40.513590
525.070301, 40.558726
526.975056, 40.598000
528.873549, 40.631339
530.765382, 40.658675
532.650155, 40.679940
534.527471, 40.695071
536.396928, 40.704006
538.258129, 40.706687
540.110675, 40.703058
541.954165, 40.693066
543.788203, 40.676661
545.612387, 40.653797
547.426320, 40.624430
549.229602, 40.588519
551.021834, 40.546029
552.802618, 40.496925
554.571554, 40.441177
556.328242, 40.378759
558.072285, 40.309648
559.803283, 40.233826
561.520837, 40.151275
563.224548, 40.061985
564.914016, 39.965949
566.588844, 39.863161
568.248632, 39.753623
569.892980, 39.637338
571.521490, 39.514314
573.133763, 39.384564
574.729400, 39.248103
576.308001, 39.104953
577.869168, 38.955137
579.412502, 38.798685
579.412502, 38.798685
580.944440, 38.638950
582.471743, 38.479262
583.994231, 38.319610
585.511724, 38.159988
587.024041, 38.000388
588.531004, 37.840802
590.032430, 37.681222
591.528142, 37.521641
593.017957, 37.362053
594.501697, 37.202450
595.979180, 37.042825
597.450228, 36.883173
598.914659, 36.723487
600.372294, 36.563761
601.822953, 36.403988
603.266455, 36.244164
604.702621, 36.084283
606.131269, 35.924339
607.552221, 35.764328
608.965296, 35.604244
610.370313, 35.444082
611.767093, 35.283839
613.155456, 35.123510
614.535222, 34.963090
615.906210, 34.802575
617.268240, 34.641963
618.621132, 34.481249
619.964706, 34.320429
621.298782, 34.159501
622.623180, 33.998462
623.937720, 33.837308
625.242221, 33.676037
626.536504, 33.514647
627.820388, 33.353134
629.093693, 33.191498
630.356240, 33.029737
631.607847, 32.867847
632.848335, 32.705829
634.077524, 32.543680
635.295234, 32.381399
636.501284, 32.218986
637.695494, 32.056439
638.877685, 31.893758
640.047676, 31.730943
641.205287, 31.567993
642.350337, 31.404907
643.482648, 31.241687
644.602038, 31.078333
645.708328, 30.914844
646.801337, 30.751222
647.880886, 30.587467
648.946794, 30.423580
649.998881, 30.259563
651.036967, 30.095416
652.060871, 29.931142
653.070415, 29.766741
654.065417, 29.602216
655.045698, 29.437569
656.011077, 29.272802
656.961374, 29.107918
657.896409, 28.942918
658.816003, 28.777805
659.719974, 28.612583
660.608143, 28.447254
661.480330, 28.281822
662.336354, 28.116290
663.176036, 27.950661
663.999195, 27.784939
664.805652, 27.619128
665.595225, 27.453231
666.367736, 27.287254
667.123003, 27.121200
667.860847, 26.955074
668.581088, 26.788880
669.283545, 26.622623
669.968038, 26.456308
670.634388, 26.289940
671.282414, 26.123525
671.911936, 25.957066
672.522774, 25.790571
673.114748, 25.624044
673.687677, 25.457492
674.241382, 25.290919
674.775682, 25.124333
675.290398, 24.957740
675.785349, 24.791144
676.260355, 24.624554
676.715236, 24.457976
677.149812, 24.291416
677.563902, 24.124880
677.957327, 23.958377
678.329907, 23.791913
678.681461, 23.625494
679.011809, 23.459129
679.320772, 23.292825
679.608168, 23.126589
679.873819, 22.960428
680.117543, 22.794351
680.339161, 22.628365
680.339161, 22.628365
680.552460, 22.459554
680.770934, 22.285098
680.994494, 22.105082
681.223049, 21.919596
681.456509, 21.728737
681.694784, 21.532607
681.937784, 21.331314
682.185419, 21.124973
682.437599, 20.913704
682.694234, 20.697631
682.955234, 20.476885
683.220509, 20.251603
683.489969, 20.021927
683.763523, 19.788002
684.041083, 19.549979
684.322557, 19.308015
684.607856, 19.062270
684.896889, 18.812907
685.189567, 18.560095
685.485800, 18.304007
685.785497, 18.044818
686.088569, 17.782707
686.394926, 17.517855
686.704477, 17.250448
687.017132, 16.980673
687.332802, 16.708720
687.651396, 16.434778
687.972825, 16.159043
688.296998, 15.881707
688.623825, 15.602967
688.953217, 15.323018
689.285082, 15.042058
689.619332, 14.760283
689.955877, 14.477889
690.294625, 14.195074
690.635488, 13.912033
690.978374, 13.628961
691.323195, 13.346049
691.669859, 13.063492
692.018278, 12.781477
692.368361, 12.500193
692.720017, 12.219824
693.073158, 11.940554
693.427692, 11.662561
693.783530, 11.386021
694.140582, 11.111107
694.498758, 10.837987
694.857967, 10.566827
695.218120, 10.297786
695.579127, 10.031021
695.940898, 9.766683
696.303342, 9.504918
696.666369, 9.245868
697.029891, 8.989670
697.393815, 8.736454
697.758054, 8.486345
698.122515, 8.239463
698.487110, 7.995922
698.851749, 7.755830
699.216341, 7.519289
699.580796, 7.286396
699.945024, 7.057240
700.308936, 6.831904
700.672441, 6.610467
701.035449, 6.393000
701.397871, 6.179567
701.759615, 5.970228
702.120593, 5.765036
702.480713, 5.564036
702.839887, 5.367270
703.198024, 5.174771
703.555033, 4.986568
703.910826, 4.802684
704.265311, 4.623134
704.618400, 4.447929
704.970001, 4.277075
705.320025, 4.110570
705.668382, 3.948411
706.014982, 3.790585
706.359734, 3.637077
706.702549, 3.487865
707.043337, 3.342924
707.382007, 3.202224
707.718470, 3.065731
708.052635, 2.933405
708.384413, 2.805203
708.713714, 2.681080
709.040447, 2.560984
709.364522, 2.444863
709.685850, 2.332659
710.004340, 2.224311
710.319903, 2.119759
710.632447, 2.018936
710.941884, 1.921774
711.248124, 1.828204
711.551075, 1.738153
711.850649, 1.651549
712.146755, 1.568314
712.439303, 1.488374
712.439303, 1.488374
712.728324, 1.412413
713.013914, 1.340964
713.296084, 1.273734
713.574845, 1.210453
713.850205, 1.150864
714.122177, 1.094734
714.390769, 1.041841
714.655991, 0.991981
714.917855, 0.944963
715.176370, 0.900609
715.431547, 0.858754
715.683394, 0.819241
715.931924, 0.781928
716.177145, 0.746678
716.419069, 0.713367
716.657705, 0.681877
716.893063, 0.652097
717.125154, 0.623926
717.353987, 0.597266
717.579574, 0.572030
717.801923, 0.548131
718.021046, 0.525493
718.236952, 0.504041
718.449652, 0.483707
718.659156, 0.464426
718.865473, 0.446138
719.068615, 0.428785
719.268591, 0.412316
719.465412, 0.396680
719.659087, 0.381831
719.849627, 0.367725
720.037042, 0.354320
720.221343, 0.341578
720.402538, 0.329463
720.580640, 0.317941
720.755657, 0.306980
720.927599, 0.296550
721.096478, 0.286622
721.262304, 0.277170
721.425085, 0.268168
721.584833, 0.259595
721.741558, 0.251426
721.895270, 0.243642
722.045979, 0.236222
722.193695, 0.229149
722.338429, 0.222404
722.480190, 0.215972
722.618989, 0.209837
722.754837, 0.203984
722.887742, 0.198400
723.017715, 0.193071
723.144768, 0.187986
723.268908, 0.183132
723.390148, 0.178499
723.508497, 0.174077
723.623965, 0.169856
723.736562, 0.165827
723.846299, 0.161980
723.953185, 0.158309
724.057231, 0.154805
724.158448, 0.151460
724.256845, 0.148269
724.352432, 0.145225
724.445220, 0.142320
724.535218, 0.139551
724.622438, 0.136910
724.706888, 0.134394
724.788580, 0.131997
724.867523, 0.129714
724.943728, 0.127541
725.017205, 0.125475
725.087964, 0.123510
725.156015, 0.121645
725.221368, 0.119874
725.284034, 0.118196
725.344022, 0.116606
725.401343, 0.115103
725.456008, 0.113683
725.508025, 0.112344
725.557406, 0.111084
725.604161, 0.109900
725.648299, 0.108791
725.689831, 0.107755
725.728767, 0.106789
725.765118, 0.105892
725.798893, 0.105064
725.830102, 0.104301
725.858756, 0.103604
725.884865, 0.102971
725.908440, 0.102401
725.929489, 0.101893
725.948025, 0.101446
725.964055, 0.101061
725.977592, 0.100735
725.988644, 0.100469
725.997223, 0.100263
726.003338, 0.100115
726.007000, 0.100027
726.008218, 0.099997
